IV with two I-meter
:Program Version
13.8.2003 Moll, 4.2008 Fahrer, 6.2011 Gabrysch
:Program Library
CVIV.llb
:start
23/11/2017 17:14:07
:stop
23/11/2017 17:21:46
:elapsed [s]
458.6
:gpib bus delay [ms]
50
:device
W332-M12
:tester
Isidre
:environment
Probe Station (28-2-019)
:comment
unirrad
:annealing time [min]
0
:material
n FZ
:temperature [C]
20.00
:ToolID
1102
:GuardRingConnection
1
:Region
0
:Instruments
I meter: Keithley 6487
V source: Keithley 2410
- integration time [ms]: 20.0
- internal averaging: 10
- compliance [A or V]: 1.000E-4
:ramp up step [V], delay [s], down step [V], delay[s]
2.0, 1.0, 20.0, 0.5
:set voltage start [V], voltage stop [V], number of steps
0.0, 100.0, 20
:measured voltage start [V], voltage stop [V], number of steps
0.0, 350.0, 59
:step mode
voltages from file
:legend
bias [V]	Total Current [A]	Pad Current [A]
BEGIN
0.000000E+0	2.632364E-10	6.348421E-12
5.000000E-1	-3.945935E-10	1.602456E-11
1.000000E+0	3.126601E-10	1.674485E-11
1.500000E+0	3.167897E-10	1.740075E-11
2.000000E+0	5.029416E-10	1.787158E-11
3.000000E+0	-1.485799E-9	1.989289E-11
4.000000E+0	-4.725362E-10	2.062343E-11
5.000000E+0	-6.756806E-10	2.195204E-11
6.000000E+0	3.747977E-10	2.251791E-11
7.000000E+0	6.671771E-10	2.380449E-11
8.000000E+0	6.807785E-10	2.491317E-11
9.000000E+0	-3.578638E-10	2.559315E-11
1.000000E+1	3.799973E-10	2.629212E-11
1.200000E+1	-3.098005E-10	2.842520E-11
1.400000E+1	2.695712E-10	3.040601E-11
1.600000E+1	-6.882847E-10	3.158308E-11
1.800000E+1	8.778865E-11	3.246834E-11
2.000000E+1	-9.678117E-10	3.383662E-11
2.500000E+1	-3.238986E-10	3.574875E-11
3.000000E+1	-6.954812E-10	3.786594E-11
3.500000E+1	-4.432973E-10	3.962990E-11
4.000000E+1	-1.017425E-9	4.148482E-11
4.500000E+1	-9.880404E-10	4.305314E-11
5.000000E+1	8.710349E-10	4.448131E-11
5.500000E+1	-8.271778E-10	4.597099E-11
6.000000E+1	-6.457087E-10	4.742808E-11
6.500000E+1	1.004584E-9	4.876717E-11
7.000000E+1	1.174652E-9	4.990559E-11
7.500000E+1	-5.425259E-10	5.116592E-11
8.000000E+1	3.067612E-10	5.224689E-11
8.500000E+1	-2.974139E-10	5.337701E-11
9.000000E+1	7.298638E-10	5.435744E-11
9.500000E+1	1.412512E-9	5.535619E-11
1.000000E+2	1.280283E-9	5.633803E-11
1.100000E+2	1.287876E-9	5.826749E-11
1.200000E+2	1.661145E-9	6.015377E-11
1.300000E+2	1.537220E-9	6.186503E-11
1.400000E+2	7.476638E-10	6.345129E-11
1.500000E+2	2.085326E-9	6.515366E-11
1.600000E+2	1.690684E-9	6.654018E-11
1.700000E+2	7.194523E-10	6.802299E-11
1.800000E+2	2.236507E-9	6.953136E-11
1.900000E+2	2.193445E-9	7.094446E-11
2.000000E+2	1.637101E-9	7.223895E-11
2.100000E+2	1.491404E-9	7.361769E-11
2.200000E+2	2.796816E-9	7.493655E-11
2.300000E+2	3.028503E-9	7.616694E-11
2.400000E+2	2.252218E-9	7.734367E-11
2.500000E+2	3.808463E-9	7.869558E-11
2.600000E+2	3.057248E-9	7.991705E-11
2.700000E+2	4.312843E-9	8.136396E-11
2.800000E+2	3.188699E-9	8.284289E-11
2.900000E+2	3.312020E-9	8.444651E-11
3.000000E+2	4.825251E-9	8.609080E-11
3.100000E+2	4.251423E-9	8.810668E-11
3.200000E+2	4.805899E-9	9.163432E-11
3.300000E+2	4.885747E-9	1.000132E-10
3.400000E+2	4.716715E-9	1.215765E-10
3.500000E+2	6.221532E-9	1.736091E-10
END
