IV with two I-meter
:Program Version
13.8.2003 Moll, 4.2008 Fahrer, 6.2011 Gabrysch
:Program Library
CVIV.llb
:start
23/11/2017 21:00:11
:stop
23/11/2017 21:09:25
:elapsed [s]
553.9
:gpib bus delay [ms]
50
:device
W332-M4
:tester
Isidre
:environment
Probe Station (28-2-019)
:comment
unirrad
:annealing time [min]
0
:material
n FZ
:temperature [C]
20.00
:ToolID
1102
:GuardRingConnection
1
:Region
0
:Instruments
I meter: Keithley 6487
V source: Keithley 2410
- integration time [ms]: 20.0
- internal averaging: 10
- compliance [A or V]: 1.000E-4
:ramp up step [V], delay [s], down step [V], delay[s]
2.0, 1.0, 20.0, 0.5
:set voltage start [V], voltage stop [V], number of steps
0.0, 100.0, 20
:measured voltage start [V], voltage stop [V], number of steps
0.0, 450.0, 69
:step mode
voltages from file
:legend
bias [V]	Total Current [A]	Pad Current [A]
BEGIN
0.000000E+0	-1.697837E-10	9.624823E-12
5.000000E-1	-4.754040E-10	1.625298E-11
1.000000E+0	-5.462481E-10	1.685977E-11
1.500000E+0	-1.556123E-9	1.760753E-11
2.000000E+0	4.120981E-10	1.836381E-11
3.000000E+0	-6.076418E-10	1.879536E-11
4.000000E+0	3.928031E-10	1.960690E-11
5.000000E+0	6.130189E-10	2.084957E-11
6.000000E+0	-3.941526E-10	2.174591E-11
7.000000E+0	4.892208E-10	2.269659E-11
8.000000E+0	-1.248328E-9	2.380188E-11
9.000000E+0	-1.238195E-9	2.453887E-11
1.000000E+1	5.630231E-10	2.542208E-11
1.200000E+1	6.492378E-10	2.737192E-11
1.400000E+1	-1.099409E-9	2.907169E-11
1.600000E+1	5.116336E-10	3.040000E-11
1.800000E+1	4.494030E-10	3.146378E-11
2.000000E+1	9.030974E-10	3.246899E-11
2.500000E+1	4.292207E-10	3.466491E-11
3.000000E+1	-4.171296E-10	3.671853E-11
3.500000E+1	-4.590476E-10	3.843283E-11
4.000000E+1	1.182810E-9	3.998652E-11
4.500000E+1	1.344046E-10	4.139622E-11
5.000000E+1	1.031748E-9	4.299479E-11
5.500000E+1	7.626896E-10	4.429643E-11
6.000000E+1	-4.201144E-11	4.562267E-11
6.500000E+1	9.526033E-10	4.684977E-11
7.000000E+1	-3.911963E-11	4.789570E-11
7.500000E+1	1.215565E-9	4.907522E-11
8.000000E+1	4.090955E-10	5.010668E-11
8.500000E+1	1.272904E-9	5.114563E-11
9.000000E+1	3.962048E-10	5.204679E-11
9.500000E+1	1.278738E-9	5.307642E-11
1.000000E+2	1.677966E-9	5.407681E-11
1.100000E+2	1.113255E-9	5.582149E-11
1.200000E+2	1.335102E-9	5.746938E-11
1.300000E+2	2.078352E-9	5.898951E-11
1.400000E+2	1.657359E-9	6.045652E-11
1.500000E+2	2.406666E-9	6.195175E-11
1.600000E+2	1.415239E-9	6.340338E-11
1.700000E+2	1.380451E-9	6.467262E-11
1.800000E+2	2.879373E-9	6.599077E-11
1.900000E+2	1.704033E-9	6.717983E-11
2.000000E+2	2.103294E-9	6.840284E-11
2.100000E+2	2.799647E-9	6.935093E-11
2.200000E+2	3.155703E-9	7.045540E-11
2.300000E+2	2.878487E-9	7.138208E-11
2.400000E+2	4.256189E-9	7.237356E-11
2.500000E+2	4.775521E-9	7.321914E-11
2.600000E+2	6.887329E-9	7.390108E-11
2.700000E+2	9.773415E-9	7.477544E-11
2.800000E+2	1.415012E-8	7.595756E-11
2.900000E+2	2.416521E-8	7.705482E-11
3.000000E+2	3.690293E-8	7.816770E-11
3.100000E+2	5.362967E-8	7.947376E-11
3.200000E+2	7.820367E-8	8.105682E-11
3.300000E+2	1.114661E-7	8.314807E-11
3.400000E+2	1.556401E-7	8.621839E-11
3.500000E+2	2.124377E-7	9.054019E-11
3.600000E+2	2.816377E-7	9.589304E-11
3.700000E+2	3.700613E-7	1.016125E-10
3.800000E+2	4.704416E-7	1.084298E-10
3.900000E+2	5.921202E-7	1.140843E-10
4.000000E+2	7.338256E-7	1.196612E-10
4.100000E+2	8.992291E-7	1.261333E-10
4.200000E+2	1.092097E-6	1.312379E-10
4.300000E+2	1.327819E-6	1.417154E-10
4.400000E+2	1.610775E-6	1.546950E-10
4.500000E+2	1.940021E-6	1.740802E-10
END
