IV with two I-meter
:Program Version
13.8.2003 Moll, 4.2008 Fahrer, 6.2011 Gabrysch
:Program Library
CVIV.llb
:start
15/04/2018 17:25:53
:stop
15/04/2018 17:33:11
:elapsed [s]
438.1
:gpib bus delay [ms]
50
:device
W332-M4
:tester
Isidre
:environment
Probe Station (28-2-019)
:comment
fluence:1.09e12, SET:003135
:annealing time [min]
80
:material
n FZ
:temperature [C]
20.00
:ToolID
1102
:GuardRingConnection
1
:Region
0
:Instruments
I meter: Keithley 6487
V source: Keithley 2410
- integration time [ms]: 20.0
- internal averaging: 4
- compliance [A or V]: 1.000E-4
:ramp up step [V], delay [s], down step [V], delay[s]
2.0, 1.0, 20.0, 0.5
:set voltage start [V], voltage stop [V], number of steps
0.0, 1000.0, 200
:measured voltage start [V], voltage stop [V], number of steps
0.0, 350.0, 59
:step mode
voltages from file
:legend
bias [V]	Total Current [A]	Pad Current [A]
BEGIN
0.000000E+0	-3.018805E-9	-1.709582E-9
5.000000E-1	1.180852E-8	1.003712E-8
1.000000E+0	1.358790E-8	1.343174E-8
1.500000E+0	1.750698E-8	1.604814E-8
2.000000E+0	2.139730E-8	1.829846E-8
3.000000E+0	2.391846E-8	2.213471E-8
4.000000E+0	2.946127E-8	2.539768E-8
5.000000E+0	3.224873E-8	2.826252E-8
6.000000E+0	3.610146E-8	3.087987E-8
7.000000E+0	3.729724E-8	3.332466E-8
8.000000E+0	4.182688E-8	3.560325E-8
9.000000E+0	4.287599E-8	3.776946E-8
1.000000E+1	4.583747E-8	3.982477E-8
1.200000E+1	5.003030E-8	4.363739E-8
1.400000E+1	5.394948E-8	4.718103E-8
1.600000E+1	5.791847E-8	5.049346E-8
1.800000E+1	6.227333E-8	5.360833E-8
2.000000E+1	6.575299E-8	5.653983E-8
2.500000E+1	7.390243E-8	6.326198E-8
3.000000E+1	8.213610E-8	6.935384E-8
3.500000E+1	8.950494E-8	7.494451E-8
4.000000E+1	9.590936E-8	8.013789E-8
4.500000E+1	1.002434E-7	8.505876E-8
5.000000E+1	1.076389E-7	8.981587E-8
5.500000E+1	1.129813E-7	9.431037E-8
6.000000E+1	1.175628E-7	9.864285E-8
6.500000E+1	1.228898E-7	1.028172E-7
7.000000E+1	1.268434E-7	1.068295E-7
7.500000E+1	1.313170E-7	1.107200E-7
8.000000E+1	1.364018E-7	1.144625E-7
8.500000E+1	1.420571E-7	1.180791E-7
9.000000E+1	1.464764E-7	1.216034E-7
9.500000E+1	1.504260E-7	1.250523E-7
1.000000E+2	1.531363E-7	1.284015E-7
1.100000E+2	1.629969E-7	1.348445E-7
1.200000E+2	1.687611E-7	1.410265E-7
1.300000E+2	1.766281E-7	1.469541E-7
1.400000E+2	1.846454E-7	1.526661E-7
1.500000E+2	1.919063E-7	1.581692E-7
1.600000E+2	1.985451E-7	1.635268E-7
1.700000E+2	2.046346E-7	1.687389E-7
1.800000E+2	2.117100E-7	1.738136E-7
1.900000E+2	2.173490E-7	1.787783E-7
2.000000E+2	2.240324E-7	1.836102E-7
2.100000E+2	2.292336E-7	1.883264E-7
2.200000E+2	2.344330E-7	1.928930E-7
2.300000E+2	2.408396E-7	1.972674E-7
2.400000E+2	2.467610E-7	2.014509E-7
2.500000E+2	2.499759E-7	2.055043E-7
2.600000E+2	2.568924E-7	2.093930E-7
2.700000E+2	2.601298E-7	2.130208E-7
2.800000E+2	2.642265E-7	2.162078E-7
2.900000E+2	2.677155E-7	2.186432E-7
3.000000E+2	2.707203E-7	2.203326E-7
3.100000E+2	2.730739E-7	2.215478E-7
3.200000E+2	2.769993E-7	2.228111E-7
3.300000E+2	2.780488E-7	2.248756E-7
3.400000E+2	2.845665E-7	2.284963E-7
3.500000E+2	2.898801E-7	2.341177E-7
END
