IV with two I-meter
:Program Version
13.8.2003 Moll, 4.2008 Fahrer, 6.2011 Gabrysch
:Program Library
CVIV.llb
:start
23/11/2017 18:50:36
:stop
23/11/2017 18:58:14
:elapsed [s]
458.7
:gpib bus delay [ms]
50
:device
W332-F8
:tester
Isidre
:environment
Probe Station (28-2-019)
:comment
unirrad
:annealing time [min]
0
:material
n FZ
:temperature [C]
20.00
:ToolID
1102
:GuardRingConnection
1
:Region
0
:Instruments
I meter: Keithley 6487
V source: Keithley 2410
- integration time [ms]: 20.0
- internal averaging: 10
- compliance [A or V]: 1.000E-4
:ramp up step [V], delay [s], down step [V], delay[s]
2.0, 1.0, 20.0, 0.5
:set voltage start [V], voltage stop [V], number of steps
0.0, 100.0, 20
:measured voltage start [V], voltage stop [V], number of steps
0.0, 350.0, 59
:step mode
voltages from file
:legend
bias [V]	Total Current [A]	Pad Current [A]
BEGIN
0.000000E+0	-1.792564E-9	2.106629E-11
5.000000E-1	-1.669179E-9	2.830030E-11
1.000000E+0	-4.725608E-10	2.839648E-11
1.500000E+0	-1.081398E-9	2.893005E-11
2.000000E+0	-1.086219E-9	2.951807E-11
3.000000E+0	1.071352E-11	2.936745E-11
4.000000E+0	-7.293495E-10	3.148628E-11
5.000000E+0	1.284644E-10	3.221723E-11
6.000000E+0	-9.799895E-10	3.227413E-11
7.000000E+0	-1.226200E-9	3.372250E-11
8.000000E+0	5.332818E-10	3.376104E-11
9.000000E+0	-4.329539E-10	3.501338E-11
1.000000E+1	-3.086915E-11	3.637683E-11
1.200000E+1	5.260509E-10	3.796506E-11
1.400000E+1	-1.275975E-9	3.977578E-11
1.600000E+1	-1.119861E-9	4.071333E-11
1.800000E+1	-1.065648E-9	4.162730E-11
2.000000E+1	-4.642774E-10	4.238501E-11
2.500000E+1	-1.155563E-9	4.463445E-11
3.000000E+1	-8.154292E-10	4.647653E-11
3.500000E+1	7.543614E-11	4.796653E-11
4.000000E+1	-9.114599E-10	4.969316E-11
4.500000E+1	8.962817E-10	5.107305E-11
5.000000E+1	8.668566E-10	5.240401E-11
5.500000E+1	5.802837E-10	5.379946E-11
6.000000E+1	-7.116683E-10	5.499274E-11
6.500000E+1	-2.872342E-10	5.615647E-11
7.000000E+1	-2.944569E-10	5.721913E-11
7.500000E+1	4.279173E-10	5.835754E-11
8.000000E+1	4.405407E-10	5.936798E-11
8.500000E+1	1.423377E-9	6.034593E-11
9.000000E+1	-2.980281E-10	6.115830E-11
9.500000E+1	-4.656000E-11	6.193837E-11
1.000000E+2	8.613175E-10	6.291131E-11
1.100000E+2	8.962678E-10	6.467966E-11
1.200000E+2	1.650686E-10	6.620454E-11
1.300000E+2	6.500038E-10	6.791096E-11
1.400000E+2	1.719364E-9	6.939000E-11
1.500000E+2	1.678884E-9	7.063749E-11
1.600000E+2	9.438438E-10	7.189670E-11
1.700000E+2	1.907031E-9	7.338659E-11
1.800000E+2	2.709312E-9	7.441592E-11
1.900000E+2	1.448641E-9	7.562394E-11
2.000000E+2	3.144662E-9	7.652909E-11
2.100000E+2	2.883020E-9	7.741479E-11
2.200000E+2	1.889024E-9	7.846182E-11
2.300000E+2	3.695261E-9	7.945575E-11
2.400000E+2	3.437064E-9	8.054607E-11
2.500000E+2	3.528193E-9	8.163918E-11
2.600000E+2	2.970803E-9	8.258501E-11
2.700000E+2	3.487859E-9	8.355385E-11
2.800000E+2	3.779017E-9	8.479068E-11
2.900000E+2	4.292927E-9	8.591098E-11
3.000000E+2	4.346389E-9	8.672136E-11
3.100000E+2	4.533427E-9	8.772810E-11
3.200000E+2	5.451784E-9	8.862212E-11
3.300000E+2	5.969071E-9	8.977404E-11
3.400000E+2	5.283731E-9	9.147043E-11
3.500000E+2	6.370771E-9	9.397785E-11
END
