IV with two I-meter
:Program Version
13.8.2003 Moll, 4.2008 Fahrer, 6.2011 Gabrysch
:Program Library
CVIV.llb
:start
14/04/2018 00:21:16
:stop
14/04/2018 00:28:24
:elapsed [s]
427.7
:gpib bus delay [ms]
50
:device
W332-F8
:tester
Isidre
:environment
Probe Station (28-2-019)
:comment
fluence:2.41e13, SET:003137
:annealing time [min]
0
:material
n FZ
:temperature [C]
20.00
:ToolID
1102
:GuardRingConnection
1
:Region
0
:Instruments
I meter: Keithley 6487
V source: Keithley 2410
- integration time [ms]: 20.0
- internal averaging: 4
- compliance [A or V]: 1.000E-4
:ramp up step [V], delay [s], down step [V], delay[s]
2.0, 1.0, 20.0, 0.5
:set voltage start [V], voltage stop [V], number of steps
0.0, 1000.0, 200
:measured voltage start [V], voltage stop [V], number of steps
0.0, 340.0, 58
:step mode
voltages from file
:legend
bias [V]	Total Current [A]	Pad Current [A]
BEGIN
0.000000E+0	-1.183521E-7	-1.370897E-7
5.000000E-1	8.680499E-7	7.352385E-7
1.000000E+0	1.061252E-6	8.980984E-7
1.500000E+0	1.210484E-6	1.023054E-6
2.000000E+0	1.337313E-6	1.129713E-6
3.000000E+0	1.552231E-6	1.311309E-6
4.000000E+0	1.738659E-6	1.467267E-6
5.000000E+0	1.905269E-6	1.605693E-6
6.000000E+0	2.054987E-6	1.731038E-6
7.000000E+0	2.192841E-6	1.846494E-6
8.000000E+0	2.321124E-6	1.953681E-6
9.000000E+0	2.441930E-6	2.054212E-6
1.000000E+1	2.557324E-6	2.149586E-6
1.200000E+1	2.771025E-6	2.326264E-6
1.400000E+1	2.966822E-6	2.488393E-6
1.600000E+1	3.150297E-6	2.638574E-6
1.800000E+1	3.324511E-6	2.780765E-6
2.000000E+1	3.486713E-6	2.913578E-6
2.500000E+1	3.860068E-6	3.218536E-6
3.000000E+1	4.198190E-6	3.492984E-6
3.500000E+1	4.507704E-6	3.744298E-6
4.000000E+1	4.797406E-6	3.977136E-6
4.500000E+1	5.066820E-6	4.194621E-6
5.000000E+1	5.323875E-6	4.400503E-6
5.500000E+1	5.566956E-6	4.594345E-6
6.000000E+1	5.798296E-6	4.779289E-6
6.500000E+1	6.021902E-6	4.956131E-6
7.000000E+1	6.235145E-6	5.125147E-6
7.500000E+1	6.438512E-6	5.286209E-6
8.000000E+1	6.634515E-6	5.441030E-6
8.500000E+1	6.820256E-6	5.588632E-6
9.000000E+1	7.001233E-6	5.729229E-6
9.500000E+1	7.171804E-6	5.863239E-6
1.000000E+2	7.334913E-6	5.990366E-6
1.100000E+2	7.636821E-6	6.222079E-6
1.200000E+2	7.899155E-6	6.418225E-6
1.300000E+2	8.113668E-6	6.571792E-6
1.400000E+2	8.282521E-6	6.683663E-6
1.500000E+2	8.410505E-6	6.759402E-6
1.600000E+2	8.510408E-6	6.810312E-6
1.700000E+2	8.592000E-6	6.845215E-6
1.800000E+2	8.658868E-6	6.870675E-6
1.900000E+2	8.719874E-6	6.890940E-6
2.000000E+2	8.772091E-6	6.907151E-6
2.100000E+2	8.823824E-6	6.922660E-6
2.200000E+2	8.870778E-6	6.937690E-6
2.300000E+2	8.917881E-6	6.952110E-6
2.400000E+2	8.963242E-6	6.965943E-6
2.500000E+2	9.006698E-6	6.979369E-6
2.600000E+2	9.048918E-6	6.993440E-6
2.700000E+2	9.090722E-6	7.007364E-6
2.800000E+2	9.134954E-6	7.020865E-6
2.900000E+2	9.176507E-6	7.034108E-6
3.000000E+2	9.730012E-6	7.047402E-6
3.100000E+2	2.317657E-5	7.065016E-6
3.200000E+2	4.149010E-5	7.083845E-6
3.300000E+2	7.233006E-5	7.111158E-6
3.400000E+2	9.999672E-5	7.136274E-6
END
