IV with two I-meter
:Program Version
13.8.2003 Moll, 4.2008 Fahrer, 6.2011 Gabrysch
:Program Library
CVIV.llb
:start
15/04/2018 21:38:55
:stop
15/04/2018 21:46:12
:elapsed [s]
436.8
:gpib bus delay [ms]
50
:device
W332-F8
:tester
Isidre
:environment
Probe Station (28-2-019)
:comment
fluence:2.41e13, SET:003137
:annealing time [min]
80
:material
n FZ
:temperature [C]
20.00
:ToolID
1102
:GuardRingConnection
1
:Region
0
:Instruments
I meter: Keithley 6487
V source: Keithley 2410
- integration time [ms]: 20.0
- internal averaging: 4
- compliance [A or V]: 1.000E-4
:ramp up step [V], delay [s], down step [V], delay[s]
2.0, 1.0, 20.0, 0.5
:set voltage start [V], voltage stop [V], number of steps
0.0, 1000.0, 200
:measured voltage start [V], voltage stop [V], number of steps
0.0, 350.0, 59
:step mode
voltages from file
:legend
bias [V]	Total Current [A]	Pad Current [A]
BEGIN
0.000000E+0	-5.229209E-8	-6.478989E-8
5.000000E-1	5.066325E-7	4.298355E-7
1.000000E+0	6.179916E-7	5.230563E-7
1.500000E+0	7.004518E-7	5.929807E-7
2.000000E+0	7.709548E-7	6.526458E-7
3.000000E+0	8.983595E-7	7.545523E-7
4.000000E+0	1.005710E-6	8.420773E-7
5.000000E+0	1.090096E-6	9.189413E-7
6.000000E+0	1.174794E-6	9.896986E-7
7.000000E+0	1.252663E-6	1.054855E-6
8.000000E+0	1.326964E-6	1.115383E-6
9.000000E+0	1.395426E-6	1.172248E-6
1.000000E+1	1.460437E-6	1.226217E-6
1.200000E+1	1.581547E-6	1.326996E-6
1.400000E+1	1.694794E-6	1.419270E-6
1.600000E+1	1.799320E-6	1.505055E-6
1.800000E+1	1.897671E-6	1.586087E-6
2.000000E+1	1.991472E-6	1.662024E-6
2.500000E+1	2.205133E-6	1.836379E-6
3.000000E+1	2.401451E-6	1.993696E-6
3.500000E+1	2.582531E-6	2.138875E-6
4.000000E+1	2.752215E-6	2.273271E-6
4.500000E+1	2.909832E-6	2.399339E-6
5.000000E+1	3.062085E-6	2.518962E-6
5.500000E+1	3.206952E-6	2.632285E-6
6.000000E+1	3.344104E-6	2.740735E-6
6.500000E+1	3.477926E-6	2.844115E-6
7.000000E+1	3.604296E-6	2.943217E-6
7.500000E+1	3.724925E-6	3.038330E-6
8.000000E+1	3.844171E-6	3.131133E-6
8.500000E+1	3.958866E-6	3.220320E-6
9.000000E+1	4.070835E-6	3.306622E-6
9.500000E+1	4.179452E-6	3.390816E-6
1.000000E+2	4.283831E-6	3.472567E-6
1.100000E+2	4.486020E-6	3.629231E-6
1.200000E+2	4.677807E-6	3.776718E-6
1.300000E+2	4.859025E-6	3.914946E-6
1.400000E+2	5.027137E-6	4.042066E-6
1.500000E+2	5.178894E-6	4.155183E-6
1.600000E+2	5.311818E-6	4.251882E-6
1.700000E+2	5.426687E-6	4.329197E-6
1.800000E+2	5.518210E-6	4.387759E-6
1.900000E+2	5.594866E-6	4.431982E-6
2.000000E+2	5.660963E-6	4.467236E-6
2.100000E+2	5.720537E-6	4.498765E-6
2.200000E+2	5.778420E-6	4.528830E-6
2.300000E+2	5.834795E-6	4.558813E-6
2.400000E+2	5.889689E-6	4.589596E-6
2.500000E+2	5.948283E-6	4.622017E-6
2.600000E+2	6.004864E-6	4.655998E-6
2.700000E+2	6.062965E-6	4.690418E-6
2.800000E+2	6.120607E-6	4.725733E-6
2.900000E+2	6.177041E-6	4.762576E-6
3.000000E+2	6.236980E-6	4.800577E-6
3.100000E+2	6.293975E-6	4.839112E-6
3.200000E+2	6.353016E-6	4.879534E-6
3.300000E+2	6.414339E-6	4.921753E-6
3.400000E+2	6.477941E-6	4.964860E-6
3.500000E+2	6.541839E-6	5.011334E-6
END
