IV with two I-meter
:Program Version
13.8.2003 Moll, 4.2008 Fahrer, 6.2011 Gabrysch
:Program Library
CVIV.llb
:start
23/11/2017 20:12:30
:stop
23/11/2017 20:20:08
:elapsed [s]
458.6
:gpib bus delay [ms]
50
:device
W332-M7
:tester
Isidre
:environment
Probe Station (28-2-019)
:comment
unirrad
:annealing time [min]
0
:material
n FZ
:temperature [C]
20.00
:ToolID
1102
:GuardRingConnection
1
:Region
0
:Instruments
I meter: Keithley 6487
V source: Keithley 2410
- integration time [ms]: 20.0
- internal averaging: 10
- compliance [A or V]: 1.000E-4
:ramp up step [V], delay [s], down step [V], delay[s]
2.0, 1.0, 20.0, 0.5
:set voltage start [V], voltage stop [V], number of steps
0.0, 100.0, 20
:measured voltage start [V], voltage stop [V], number of steps
0.0, 350.0, 59
:step mode
voltages from file
:legend
bias [V]	Total Current [A]	Pad Current [A]
BEGIN
0.000000E+0	-1.609100E-9	7.956498E-12
5.000000E-1	4.760858E-10	1.686371E-11
1.000000E+0	-1.301526E-9	1.769257E-11
1.500000E+0	-1.599135E-9	1.856706E-11
2.000000E+0	-1.648542E-9	1.886707E-11
3.000000E+0	4.145188E-10	2.040832E-11
4.000000E+0	-1.453558E-9	2.189904E-11
5.000000E+0	-6.463376E-11	2.282869E-11
6.000000E+0	5.966102E-10	2.404810E-11
7.000000E+0	-1.622478E-10	2.488762E-11
8.000000E+0	-9.922124E-10	2.624657E-11
9.000000E+0	4.032637E-10	2.661302E-11
1.000000E+1	4.511622E-10	2.777101E-11
1.200000E+1	3.133829E-10	2.994817E-11
1.400000E+1	5.166479E-10	3.188058E-11
1.600000E+1	-1.097114E-9	3.381248E-11
1.800000E+1	1.559633E-10	3.507433E-11
2.000000E+1	-1.258322E-9	3.650690E-11
2.500000E+1	1.622832E-10	3.906713E-11
3.000000E+1	-1.086511E-9	4.175910E-11
3.500000E+1	-5.074510E-10	4.397039E-11
4.000000E+1	-8.537209E-10	4.619534E-11
4.500000E+1	1.039461E-9	4.800441E-11
5.000000E+1	-6.570572E-10	4.993641E-11
5.500000E+1	-3.863560E-10	5.181039E-11
6.000000E+1	-6.962468E-10	5.363300E-11
6.500000E+1	2.722805E-10	5.500201E-11
7.000000E+1	1.190226E-9	5.665738E-11
7.500000E+1	-2.347611E-10	5.826909E-11
8.000000E+1	5.914352E-10	5.970412E-11
8.500000E+1	1.107203E-9	6.112973E-11
9.000000E+1	1.356163E-9	6.260998E-11
9.500000E+1	3.407389E-10	6.381902E-11
1.000000E+2	-2.528654E-10	6.510110E-11
1.100000E+2	2.866113E-10	6.755829E-11
1.200000E+2	9.255787E-10	7.002898E-11
1.300000E+2	1.640240E-9	7.231020E-11
1.400000E+2	1.164765E-9	7.448616E-11
1.500000E+2	1.719151E-9	7.658919E-11
1.600000E+2	2.327962E-9	7.869415E-11
1.700000E+2	1.926217E-9	8.055611E-11
1.800000E+2	2.655005E-9	8.242147E-11
1.900000E+2	1.788581E-9	8.429239E-11
2.000000E+2	1.976198E-9	8.612082E-11
2.100000E+2	1.712023E-9	8.790979E-11
2.200000E+2	1.731602E-9	8.955964E-11
2.300000E+2	2.553887E-9	9.121688E-11
2.400000E+2	3.134337E-9	9.291928E-11
2.500000E+2	3.678422E-9	9.464717E-11
2.600000E+2	3.962805E-9	9.649776E-11
2.700000E+2	4.118132E-9	9.831442E-11
2.800000E+2	4.546026E-9	1.004565E-10
2.900000E+2	4.106942E-9	1.026675E-10
3.000000E+2	4.180399E-9	1.051236E-10
3.100000E+2	4.169847E-9	1.077037E-10
3.200000E+2	4.103748E-9	1.107438E-10
3.300000E+2	5.875822E-9	1.146484E-10
3.400000E+2	5.909015E-9	1.201116E-10
3.500000E+2	6.167030E-9	1.281672E-10
END
