IV with two I-meter
:Program Version
13.8.2003 Moll, 4.2008 Fahrer, 6.2011 Gabrysch
:Program Library
CVIV.llb
:start
23/11/2017 16:26:19
:stop
23/11/2017 16:33:58
:elapsed [s]
458.6
:gpib bus delay [ms]
50
:device
W332-F2
:tester
Isidre
:environment
Probe Station (28-2-019)
:comment
unirrad
:annealing time [min]
0
:material
n FZ
:temperature [C]
20.00
:ToolID
1102
:GuardRingConnection
1
:Region
0
:Instruments
I meter: Keithley 6487
V source: Keithley 2410
- integration time [ms]: 20.0
- internal averaging: 10
- compliance [A or V]: 1.000E-4
:ramp up step [V], delay [s], down step [V], delay[s]
2.0, 1.0, 20.0, 0.5
:set voltage start [V], voltage stop [V], number of steps
0.0, 100.0, 20
:measured voltage start [V], voltage stop [V], number of steps
0.0, 350.0, 59
:step mode
voltages from file
:legend
bias [V]	Total Current [A]	Pad Current [A]
BEGIN
0.000000E+0	-1.375297E-9	1.567585E-11
5.000000E-1	-1.372908E-9	1.858799E-11
1.000000E+0	6.032077E-10	1.950115E-11
1.500000E+0	6.837211E-10	1.975636E-11
2.000000E+0	-1.493710E-10	2.010056E-11
3.000000E+0	-9.465109E-11	2.063179E-11
4.000000E+0	1.448118E-10	2.223837E-11
5.000000E+0	3.720428E-10	2.287306E-11
6.000000E+0	-4.982535E-10	2.393007E-11
7.000000E+0	-1.323957E-9	2.486488E-11
8.000000E+0	6.167937E-10	2.565192E-11
9.000000E+0	-8.776594E-10	2.652355E-11
1.000000E+1	-9.526913E-10	2.734054E-11
1.200000E+1	-3.625163E-10	2.940350E-11
1.400000E+1	-7.681770E-10	3.072106E-11
1.600000E+1	7.442729E-10	3.165350E-11
1.800000E+1	-1.156760E-9	3.271186E-11
2.000000E+1	-8.626012E-10	3.407123E-11
2.500000E+1	1.597376E-10	3.605852E-11
3.000000E+1	-6.576010E-10	3.781614E-11
3.500000E+1	-2.481522E-10	3.944211E-11
4.000000E+1	-2.807144E-10	4.085667E-11
4.500000E+1	9.002932E-10	4.244910E-11
5.000000E+1	-3.785996E-10	4.353441E-11
5.500000E+1	-8.175203E-10	4.475802E-11
6.000000E+1	1.109813E-9	4.591203E-11
6.500000E+1	-6.848899E-10	4.716601E-11
7.000000E+1	-3.326681E-10	4.808401E-11
7.500000E+1	-6.952782E-10	4.918306E-11
8.000000E+1	1.246905E-9	5.009716E-11
8.500000E+1	3.792837E-11	5.101195E-11
9.000000E+1	1.346964E-9	5.165720E-11
9.500000E+1	1.475380E-9	5.269472E-11
1.000000E+2	4.391825E-10	5.342014E-11
1.100000E+2	6.217162E-10	5.509533E-11
1.200000E+2	5.489667E-10	5.663149E-11
1.300000E+2	7.112280E-10	5.797332E-11
1.400000E+2	1.949884E-9	5.939022E-11
1.500000E+2	1.972503E-9	6.059129E-11
1.600000E+2	1.728345E-9	6.194257E-11
1.700000E+2	1.221814E-9	6.306520E-11
1.800000E+2	1.670048E-9	6.424915E-11
1.900000E+2	9.766704E-10	6.531794E-11
2.000000E+2	1.804916E-9	6.626770E-11
2.100000E+2	2.985461E-9	6.718292E-11
2.200000E+2	2.168821E-9	6.822239E-11
2.300000E+2	3.396592E-9	6.914487E-11
2.400000E+2	2.013637E-9	6.998799E-11
2.500000E+2	3.814059E-9	7.096995E-11
2.600000E+2	3.866436E-9	7.183039E-11
2.700000E+2	4.053349E-9	7.281665E-11
2.800000E+2	2.794793E-9	7.394749E-11
2.900000E+2	3.021926E-9	7.528769E-11
3.000000E+2	5.120437E-9	7.715154E-11
3.100000E+2	3.885290E-9	8.088119E-11
3.200000E+2	5.389221E-9	9.036710E-11
3.300000E+2	4.607979E-9	1.146272E-10
3.400000E+2	5.572743E-9	1.674787E-10
3.500000E+2	4.749544E-9	2.620854E-10
END
