IV with two I-meter
:Program Version
13.8.2003 Moll, 4.2008 Fahrer, 6.2011 Gabrysch
:Program Library
CVIV.llb
:start
13/04/2018 22:56:29
:stop
13/04/2018 23:03:49
:elapsed [s]
440.0
:gpib bus delay [ms]
50
:device
W332-M10
:tester
Isidre
:environment
Probe Station (28-2-019)
:comment
fluence: 1.09e12
:annealing time [min]
0
:material
n FZ
:temperature [C]
20.00
:ToolID
1102
:GuardRingConnection
1
:Region
0
:Instruments
I meter: Keithley 6487
V source: Keithley 2410
- integration time [ms]: 20.0
- internal averaging: 4
- compliance [A or V]: 1.000E-5
:ramp up step [V], delay [s], down step [V], delay[s]
2.0, 1.0, 20.0, 0.5
:set voltage start [V], voltage stop [V], number of steps
0.0, 1000.0, 200
:measured voltage start [V], voltage stop [V], number of steps
0.0, 350.0, 59
:step mode
voltages from file
:legend
bias [V]	Total Current [A]	Pad Current [A]
BEGIN
0.000000E+0	-3.297594E-9	-2.012618E-9
5.000000E-1	1.673151E-8	1.444964E-8
1.000000E+0	2.238146E-8	1.965477E-8
1.500000E+0	2.643408E-8	2.366581E-8
2.000000E+0	3.000768E-8	2.710821E-8
3.000000E+0	3.863082E-8	3.295543E-8
4.000000E+0	4.328620E-8	3.795567E-8
5.000000E+0	4.791113E-8	4.240394E-8
6.000000E+0	5.361511E-8	4.643976E-8
7.000000E+0	5.772545E-8	5.017870E-8
8.000000E+0	6.153454E-8	5.366706E-8
9.000000E+0	6.597283E-8	5.694878E-8
1.000000E+1	6.919013E-8	6.006560E-8
1.200000E+1	7.670030E-8	6.590769E-8
1.400000E+1	8.314971E-8	7.130438E-8
1.600000E+1	8.991633E-8	7.633239E-8
1.800000E+1	9.706032E-8	8.110759E-8
2.000000E+1	1.027289E-7	8.557057E-8
2.500000E+1	1.151616E-7	9.590963E-8
3.000000E+1	1.264481E-7	1.052656E-7
3.500000E+1	1.388312E-7	1.139206E-7
4.000000E+1	1.489449E-7	1.219863E-7
4.500000E+1	1.567184E-7	1.295671E-7
5.000000E+1	1.660791E-7	1.367886E-7
5.500000E+1	1.744197E-7	1.436342E-7
6.000000E+1	1.841481E-7	1.501886E-7
6.500000E+1	1.906452E-7	1.565217E-7
7.000000E+1	1.996675E-7	1.626074E-7
7.500000E+1	2.056662E-7	1.684755E-7
8.000000E+1	2.140194E-7	1.741879E-7
8.500000E+1	2.208755E-7	1.797316E-7
9.000000E+1	2.280144E-7	1.851146E-7
9.500000E+1	2.331905E-7	1.903778E-7
1.000000E+2	2.399921E-7	1.955059E-7
1.100000E+2	2.528738E-7	2.053814E-7
1.200000E+2	2.662144E-7	2.148144E-7
1.300000E+2	2.761035E-7	2.239275E-7
1.400000E+2	2.875399E-7	2.327260E-7
1.500000E+2	2.986102E-7	2.412241E-7
1.600000E+2	3.110575E-7	2.494503E-7
1.700000E+2	3.218402E-7	2.574707E-7
1.800000E+2	3.309276E-7	2.652881E-7
1.900000E+2	3.405680E-7	2.729445E-7
2.000000E+2	3.522901E-7	2.804043E-7
2.100000E+2	3.622966E-7	2.876884E-7
2.200000E+2	3.714385E-7	2.947777E-7
2.300000E+2	3.793309E-7	3.016038E-7
2.400000E+2	3.891681E-7	3.082073E-7
2.500000E+2	3.977924E-7	3.145006E-7
2.600000E+2	4.074286E-7	3.203644E-7
2.700000E+2	4.209271E-7	3.256672E-7
2.800000E+2	4.384894E-7	3.300249E-7
2.900000E+2	4.677668E-7	3.331365E-7
3.000000E+2	5.098644E-7	3.351778E-7
3.100000E+2	5.758386E-7	3.365182E-7
3.200000E+2	6.797907E-7	3.374663E-7
3.300000E+2	8.406655E-7	3.382221E-7
3.400000E+2	1.071495E-6	3.389086E-7
3.500000E+2	1.398699E-6	3.395172E-7
END
