IV with two I-meter
:Program Version
13.8.2003 Moll, 4.2008 Fahrer, 6.2011 Gabrysch
:Program Library
CVIV.llb
:start
14/04/2018 00:02:59
:stop
14/04/2018 00:09:48
:elapsed [s]
409.3
:gpib bus delay [ms]
50
:device
W332-M6
:tester
Isidre
:environment
Probe Station (28-2-019)
:comment
fluence:2.41e13, SET:003137
:annealing time [min]
0
:material
n FZ
:temperature [C]
20.00
:ToolID
1102
:GuardRingConnection
1
:Region
0
:Instruments
I meter: Keithley 6487
V source: Keithley 2410
- integration time [ms]: 20.0
- internal averaging: 4
- compliance [A or V]: 1.000E-5
:ramp up step [V], delay [s], down step [V], delay[s]
2.0, 1.0, 20.0, 0.5
:set voltage start [V], voltage stop [V], number of steps
0.0, 1000.0, 200
:measured voltage start [V], voltage stop [V], number of steps
0.0, 320.0, 56
:step mode
voltages from file
:legend
bias [V]	Total Current [A]	Pad Current [A]
BEGIN
0.000000E+0	-8.744111E-8	-1.081875E-7
5.000000E-1	7.638291E-7	6.445125E-7
1.000000E+0	9.436690E-7	7.920638E-7
1.500000E+0	1.066607E-6	8.999188E-7
2.000000E+0	1.179549E-6	9.945477E-7
3.000000E+0	1.373241E-6	1.155534E-6
4.000000E+0	1.537802E-6	1.294101E-6
5.000000E+0	1.686177E-6	1.417487E-6
6.000000E+0	1.820496E-6	1.529753E-6
7.000000E+0	1.942955E-6	1.633313E-6
8.000000E+0	2.058727E-6	1.729686E-6
9.000000E+0	2.167485E-6	1.820304E-6
1.000000E+1	2.270466E-6	1.905881E-6
1.200000E+1	2.465081E-6	2.065623E-6
1.400000E+1	2.641263E-6	2.212961E-6
1.600000E+1	2.806563E-6	2.349591E-6
1.800000E+1	2.965363E-6	2.479221E-6
2.000000E+1	3.112755E-6	2.600438E-6
2.500000E+1	3.453723E-6	2.880184E-6
3.000000E+1	3.763505E-6	3.133575E-6
3.500000E+1	4.049343E-6	3.367255E-6
4.000000E+1	4.315885E-6	3.584583E-6
4.500000E+1	4.569006E-6	3.788189E-6
5.000000E+1	4.807354E-6	3.981677E-6
5.500000E+1	5.034022E-6	4.164763E-6
6.000000E+1	5.250835E-6	4.339591E-6
6.500000E+1	5.460558E-6	4.508018E-6
7.000000E+1	5.663540E-6	4.669785E-6
7.500000E+1	5.856323E-6	4.825437E-6
8.000000E+1	6.044917E-6	4.975854E-6
8.500000E+1	6.225740E-6	5.120609E-6
9.000000E+1	6.402264E-6	5.260031E-6
9.500000E+1	6.572694E-6	5.395014E-6
1.000000E+2	6.736548E-6	5.524840E-6
1.100000E+2	7.046902E-6	5.769427E-6
1.200000E+2	7.330940E-6	5.990856E-6
1.300000E+2	7.587110E-6	6.185769E-6
1.400000E+2	7.806310E-6	6.348339E-6
1.500000E+2	7.986365E-6	6.474688E-6
1.600000E+2	8.131914E-6	6.567527E-6
1.700000E+2	8.243413E-6	6.632703E-6
1.800000E+2	8.333784E-6	6.678642E-6
1.900000E+2	8.410200E-6	6.711515E-6
2.000000E+2	8.472588E-6	6.736449E-6
2.100000E+2	8.530481E-6	6.755706E-6
2.200000E+2	8.579583E-6	6.771919E-6
2.300000E+2	8.628260E-6	6.786727E-6
2.400000E+2	8.673100E-6	6.800743E-6
2.500000E+2	8.717057E-6	6.814750E-6
2.600000E+2	8.760316E-6	6.828588E-6
2.700000E+2	8.802631E-6	6.843190E-6
2.800000E+2	8.846323E-6	6.857609E-6
2.900000E+2	8.884774E-6	6.869404E-6
3.000000E+2	8.925397E-6	6.881943E-6
3.100000E+2	8.969155E-6	6.892038E-6
3.200000E+2	9.999559E-6	6.902179E-6
END
