IV with two I-meter
:Program Version
13.8.2003 Moll, 4.2008 Fahrer, 6.2011 Gabrysch
:Program Library
CVIV.llb
:start
23/11/2017 19:11:27
:stop
23/11/2017 19:19:06
:elapsed [s]
458.6
:gpib bus delay [ms]
50
:device
W332-M6
:tester
Isidre
:environment
Probe Station (28-2-019)
:comment
unirrad
:annealing time [min]
0
:material
n FZ
:temperature [C]
20.00
:ToolID
1102
:GuardRingConnection
1
:Region
0
:Instruments
I meter: Keithley 6487
V source: Keithley 2410
- integration time [ms]: 20.0
- internal averaging: 10
- compliance [A or V]: 1.000E-4
:ramp up step [V], delay [s], down step [V], delay[s]
2.0, 1.0, 20.0, 0.5
:set voltage start [V], voltage stop [V], number of steps
0.0, 100.0, 20
:measured voltage start [V], voltage stop [V], number of steps
0.0, 350.0, 59
:step mode
voltages from file
:legend
bias [V]	Total Current [A]	Pad Current [A]
BEGIN
0.000000E+0	-3.357061E-11	1.108659E-11
5.000000E-1	-3.068010E-10	1.801658E-11
1.000000E+0	-1.082501E-10	1.901965E-11
1.500000E+0	-3.223618E-10	1.979510E-11
2.000000E+0	-2.762405E-10	2.012381E-11
3.000000E+0	-1.491964E-9	2.068240E-11
4.000000E+0	-9.455738E-10	2.193749E-11
5.000000E+0	6.422137E-10	2.273436E-11
6.000000E+0	-9.751807E-10	2.363080E-11
7.000000E+0	4.536777E-10	2.445094E-11
8.000000E+0	6.461395E-10	2.508039E-11
9.000000E+0	-8.310391E-10	2.620639E-11
1.000000E+1	5.868047E-10	2.677708E-11
1.200000E+1	-1.188609E-9	2.853478E-11
1.400000E+1	-1.146299E-9	3.029688E-11
1.600000E+1	-6.866974E-10	3.169430E-11
1.800000E+1	-1.691507E-10	3.307570E-11
2.000000E+1	8.108070E-10	3.374380E-11
2.500000E+1	-3.738823E-10	3.632349E-11
3.000000E+1	-1.804254E-10	3.791151E-11
3.500000E+1	-5.362535E-10	3.984177E-11
4.000000E+1	-8.969049E-10	4.149047E-11
4.500000E+1	-5.571757E-10	4.284256E-11
5.000000E+1	3.618772E-10	4.413151E-11
5.500000E+1	1.030289E-9	4.549528E-11
6.000000E+1	2.442458E-10	4.680225E-11
6.500000E+1	1.165664E-9	4.772822E-11
7.000000E+1	1.852033E-11	4.913374E-11
7.500000E+1	7.275610E-10	5.009753E-11
8.000000E+1	1.328613E-9	5.109335E-11
8.500000E+1	9.393092E-10	5.209898E-11
9.000000E+1	1.393402E-9	5.312861E-11
9.500000E+1	-2.577200E-10	5.404986E-11
1.000000E+2	1.284794E-9	5.495336E-11
1.100000E+2	2.393143E-10	5.662556E-11
1.200000E+2	2.366899E-10	5.827837E-11
1.300000E+2	8.198995E-10	5.977432E-11
1.400000E+2	1.992299E-9	6.129805E-11
1.500000E+2	5.746593E-10	6.269002E-11
1.600000E+2	2.295257E-9	6.393616E-11
1.700000E+2	2.295077E-9	6.523006E-11
1.800000E+2	1.253319E-9	6.620953E-11
1.900000E+2	2.823869E-9	6.743735E-11
2.000000E+2	2.394595E-9	6.859834E-11
2.100000E+2	3.295011E-9	6.967153E-11
2.200000E+2	2.640620E-9	7.074297E-11
2.300000E+2	2.624594E-9	7.160743E-11
2.400000E+2	2.453072E-9	7.282355E-11
2.500000E+2	2.555742E-9	7.356384E-11
2.600000E+2	4.085791E-9	7.440122E-11
2.700000E+2	4.151199E-9	7.540112E-11
2.800000E+2	3.766710E-9	7.621480E-11
2.900000E+2	4.030907E-9	7.710363E-11
3.000000E+2	4.088250E-9	7.797487E-11
3.100000E+2	5.692128E-9	7.902724E-11
3.200000E+2	4.721482E-9	7.973636E-11
3.300000E+2	5.925141E-9	8.079457E-11
3.400000E+2	6.389914E-9	8.242197E-11
3.500000E+2	6.394077E-9	8.501264E-11
END
