IV with two I-meter
:Program Version
13.8.2003 Moll, 4.2008 Fahrer, 6.2011 Gabrysch
:Program Library
CVIV.llb
:start
15/04/2018 21:02:22
:stop
15/04/2018 21:09:39
:elapsed [s]
436.7
:gpib bus delay [ms]
50
:device
W332-M6
:tester
Isidre
:environment
Probe Station (28-2-019)
:comment
fluence:2.41e13, SET:003137
:annealing time [min]
80
:material
n FZ
:temperature [C]
20.00
:ToolID
1102
:GuardRingConnection
1
:Region
0
:Instruments
I meter: Keithley 6487
V source: Keithley 2410
- integration time [ms]: 20.0
- internal averaging: 4
- compliance [A or V]: 1.000E-4
:ramp up step [V], delay [s], down step [V], delay[s]
2.0, 1.0, 20.0, 0.5
:set voltage start [V], voltage stop [V], number of steps
0.0, 1000.0, 200
:measured voltage start [V], voltage stop [V], number of steps
0.0, 350.0, 59
:step mode
voltages from file
:legend
bias [V]	Total Current [A]	Pad Current [A]
BEGIN
0.000000E+0	-5.459446E-8	-7.088515E-8
5.000000E-1	4.507589E-7	3.807892E-7
1.000000E+0	5.503213E-7	4.655661E-7
1.500000E+0	6.280636E-7	5.293954E-7
2.000000E+0	6.911068E-7	5.837624E-7
3.000000E+0	8.014705E-7	6.761784E-7
4.000000E+0	9.013570E-7	7.557502E-7
5.000000E+0	9.916058E-7	8.267260E-7
6.000000E+0	1.059536E-6	8.906218E-7
7.000000E+0	1.130649E-6	9.506900E-7
8.000000E+0	1.198792E-6	1.006624E-6
9.000000E+0	1.260421E-6	1.059350E-6
1.000000E+1	1.319906E-6	1.109029E-6
1.200000E+1	1.432697E-6	1.201580E-6
1.400000E+1	1.534394E-6	1.286889E-6
1.600000E+1	1.632081E-6	1.366103E-6
1.800000E+1	1.722703E-6	1.441098E-6
2.000000E+1	1.808198E-6	1.511222E-6
2.500000E+1	2.003871E-6	1.672871E-6
3.000000E+1	2.183137E-6	1.819021E-6
3.500000E+1	2.347841E-6	1.954032E-6
4.000000E+1	2.502379E-6	2.079469E-6
4.500000E+1	2.646651E-6	2.197602E-6
5.000000E+1	2.785382E-6	2.309414E-6
5.500000E+1	2.916692E-6	2.415243E-6
6.000000E+1	3.041368E-6	2.516576E-6
6.500000E+1	3.163528E-6	2.615176E-6
7.000000E+1	3.281121E-6	2.709600E-6
7.500000E+1	3.396751E-6	2.800928E-6
8.000000E+1	3.506372E-6	2.889188E-6
8.500000E+1	3.612312E-6	2.975132E-6
9.000000E+1	3.715425E-6	3.058217E-6
9.500000E+1	3.818079E-6	3.140062E-6
1.000000E+2	3.916465E-6	3.219226E-6
1.100000E+2	4.108143E-6	3.370971E-6
1.200000E+2	4.289807E-6	3.515367E-6
1.300000E+2	4.463693E-6	3.652818E-6
1.400000E+2	4.628477E-6	3.782765E-6
1.500000E+2	4.782677E-6	3.903911E-6
1.600000E+2	4.926230E-6	4.015527E-6
1.700000E+2	5.056208E-6	4.114624E-6
1.800000E+2	5.170710E-6	4.198322E-6
1.900000E+2	5.266342E-6	4.265453E-6
2.000000E+2	5.346059E-6	4.316379E-6
2.100000E+2	5.408565E-6	4.354103E-6
2.200000E+2	5.461115E-6	4.381042E-6
2.300000E+2	5.503927E-6	4.401085E-6
2.400000E+2	5.541388E-6	4.417011E-6
2.500000E+2	5.576218E-6	4.430153E-6
2.600000E+2	5.606837E-6	4.441757E-6
2.700000E+2	5.636689E-6	4.452161E-6
2.800000E+2	5.664205E-6	4.461969E-6
2.900000E+2	5.689703E-6	4.471255E-6
3.000000E+2	5.715931E-6	4.480427E-6
3.100000E+2	5.742706E-6	4.489826E-6
3.200000E+2	5.766842E-6	4.499198E-6
3.300000E+2	5.792434E-6	4.507874E-6
3.400000E+2	5.816885E-6	4.517242E-6
3.500000E+2	5.840319E-6	4.525755E-6
END
