IV with two I-meter
:Program Version
13.8.2003 Moll, 4.2008 Fahrer, 6.2011 Gabrysch
:Program Library
CVIV.llb
:start
23/11/2017 19:30:57
:stop
23/11/2017 19:38:35
:elapsed [s]
458.6
:gpib bus delay [ms]
50
:device
W332-C4
:tester
Isidre
:environment
Probe Station (28-2-019)
:comment
unirrad
:annealing time [min]
0
:material
n FZ
:temperature [C]
20.00
:ToolID
1102
:GuardRingConnection
1
:Region
0
:Instruments
I meter: Keithley 6487
V source: Keithley 2410
- integration time [ms]: 20.0
- internal averaging: 10
- compliance [A or V]: 1.000E-4
:ramp up step [V], delay [s], down step [V], delay[s]
2.0, 1.0, 20.0, 0.5
:set voltage start [V], voltage stop [V], number of steps
0.0, 100.0, 20
:measured voltage start [V], voltage stop [V], number of steps
0.0, 350.0, 59
:step mode
voltages from file
:legend
bias [V]	Total Current [A]	Pad Current [A]
BEGIN
0.000000E+0	-1.277216E-9	1.092950E-11
5.000000E-1	-6.637803E-11	1.848320E-11
1.000000E+0	-1.521468E-9	1.958848E-11
1.500000E+0	-6.551349E-11	2.098907E-11
2.000000E+0	-2.186780E-10	2.184542E-11
3.000000E+0	-1.315735E-9	2.358537E-11
4.000000E+0	-9.972780E-10	2.554486E-11
5.000000E+0	-1.804938E-10	2.718597E-11
6.000000E+0	-1.376719E-9	2.884493E-11
7.000000E+0	4.802194E-10	3.013037E-11
8.000000E+0	5.658395E-10	3.174268E-11
9.000000E+0	3.848127E-10	3.354293E-11
1.000000E+1	5.874214E-10	3.480498E-11
1.200000E+1	3.028875E-10	3.741892E-11
1.400000E+1	1.104945E-10	4.017907E-11
1.600000E+1	3.985944E-10	4.236905E-11
1.800000E+1	-7.829215E-10	4.452436E-11
2.000000E+1	6.782487E-10	4.640634E-11
2.500000E+1	-4.514451E-11	5.062017E-11
3.000000E+1	-1.033562E-9	5.415987E-11
3.500000E+1	7.913379E-10	5.700368E-11
4.000000E+1	3.051229E-10	6.059249E-11
4.500000E+1	-9.459028E-10	6.364823E-11
5.000000E+1	-6.210745E-10	6.634606E-11
5.500000E+1	1.125542E-9	6.865990E-11
6.000000E+1	1.206120E-9	7.128716E-11
6.500000E+1	7.262567E-10	7.392931E-11
7.000000E+1	6.815588E-10	7.663534E-11
7.500000E+1	-4.562732E-11	7.947721E-11
8.000000E+1	2.479036E-10	8.163800E-11
8.500000E+1	-1.750966E-10	8.417638E-11
9.000000E+1	1.515244E-9	8.643227E-11
9.500000E+1	7.473111E-10	8.861190E-11
1.000000E+2	4.041241E-10	9.076866E-11
1.100000E+2	2.271847E-10	9.492398E-11
1.200000E+2	1.466004E-9	9.886993E-11
1.300000E+2	1.449562E-9	1.029368E-10
1.400000E+2	1.663694E-9	1.067328E-10
1.500000E+2	5.880443E-10	1.105154E-10
1.600000E+2	2.054807E-9	1.146785E-10
1.700000E+2	2.666265E-9	1.185373E-10
1.800000E+2	1.571961E-9	1.223364E-10
1.900000E+2	2.325965E-9	1.261416E-10
2.000000E+2	3.037292E-9	1.298673E-10
2.100000E+2	1.574123E-9	1.334954E-10
2.200000E+2	2.996095E-9	1.375020E-10
2.300000E+2	3.390744E-9	1.413428E-10
2.400000E+2	3.848103E-9	1.448946E-10
2.500000E+2	3.679242E-9	1.489435E-10
2.600000E+2	4.402338E-9	1.528187E-10
2.700000E+2	3.479331E-9	1.568602E-10
2.800000E+2	3.738178E-9	1.607034E-10
2.900000E+2	5.064460E-9	1.649409E-10
3.000000E+2	4.655914E-9	1.693046E-10
3.100000E+2	4.980803E-9	1.735302E-10
3.200000E+2	5.476163E-9	1.780061E-10
3.300000E+2	5.234109E-9	1.825348E-10
3.400000E+2	4.951841E-9	1.875452E-10
3.500000E+2	6.465740E-9	1.922269E-10
END
