IV with two I-meter
:Program Version
13.8.2003 Moll, 4.2008 Fahrer, 6.2011 Gabrysch
:Program Library
CVIV.llb
:start
13/04/2018 23:16:26
:stop
13/04/2018 23:23:19
:elapsed [s]
412.6
:gpib bus delay [ms]
50
:device
W332-C4
:tester
Isidre
:environment
Probe Station (28-2-019)
:comment
fluence: 7.44e12, SET:003136
:annealing time [min]
0
:material
n FZ
:temperature [C]
20.00
:ToolID
1102
:GuardRingConnection
1
:Region
0
:Instruments
I meter: Keithley 6487
V source: Keithley 2410
- integration time [ms]: 20.0
- internal averaging: 4
- compliance [A or V]: 1.000E-5
:ramp up step [V], delay [s], down step [V], delay[s]
2.0, 1.0, 20.0, 0.5
:set voltage start [V], voltage stop [V], number of steps
0.0, 1000.0, 200
:measured voltage start [V], voltage stop [V], number of steps
0.0, 320.0, 56
:step mode
voltages from file
:legend
bias [V]	Total Current [A]	Pad Current [A]
BEGIN
0.000000E+0	-2.372597E-8	-2.052433E-8
5.000000E-1	1.607709E-7	1.384310E-7
1.000000E+0	2.081571E-7	1.786989E-7
1.500000E+0	2.453700E-7	2.092814E-7
2.000000E+0	2.771723E-7	2.353276E-7
3.000000E+0	3.275174E-7	2.795354E-7
4.000000E+0	3.744116E-7	3.173222E-7
5.000000E+0	4.137201E-7	3.507178E-7
6.000000E+0	4.493815E-7	3.810973E-7
7.000000E+0	4.817999E-7	4.091703E-7
8.000000E+0	5.135137E-7	4.353366E-7
9.000000E+0	5.444906E-7	4.600054E-7
1.000000E+1	5.705472E-7	4.833061E-7
1.200000E+1	6.229740E-7	5.267955E-7
1.400000E+1	6.715660E-7	5.668622E-7
1.600000E+1	7.160634E-7	6.041515E-7
1.800000E+1	7.590440E-7	6.396087E-7
2.000000E+1	7.995370E-7	6.728488E-7
2.500000E+1	8.977343E-7	7.492850E-7
3.000000E+1	9.891272E-7	8.184202E-7
3.500000E+1	1.055647E-6	8.822233E-7
4.000000E+1	1.130536E-6	9.416223E-7
4.500000E+1	1.199476E-6	9.975555E-7
5.000000E+1	1.263409E-6	1.050785E-6
5.500000E+1	1.326901E-6	1.101467E-6
6.000000E+1	1.386840E-6	1.149911E-6
6.500000E+1	1.443696E-6	1.196593E-6
7.000000E+1	1.500075E-6	1.241265E-6
7.500000E+1	1.554037E-6	1.284438E-6
8.000000E+1	1.604514E-6	1.326167E-6
8.500000E+1	1.655851E-6	1.366355E-6
9.000000E+1	1.703735E-6	1.405623E-6
9.500000E+1	1.751017E-6	1.443868E-6
1.000000E+2	1.798489E-6	1.480991E-6
1.100000E+2	1.888177E-6	1.552674E-6
1.200000E+2	1.974385E-6	1.621322E-6
1.300000E+2	2.056734E-6	1.687343E-6
1.400000E+2	2.136693E-6	1.750850E-6
1.500000E+2	2.212339E-6	1.811976E-6
1.600000E+2	2.288191E-6	1.871054E-6
1.700000E+2	2.359146E-6	1.927941E-6
1.800000E+2	2.428009E-6	1.982255E-6
1.900000E+2	2.493955E-6	2.033058E-6
2.000000E+2	2.554358E-6	2.078762E-6
2.100000E+2	2.606032E-6	2.118262E-6
2.200000E+2	2.651529E-6	2.149491E-6
2.300000E+2	2.686445E-6	2.172461E-6
2.400000E+2	2.716205E-6	2.188395E-6
2.500000E+2	2.739070E-6	2.199386E-6
2.600000E+2	2.758611E-6	2.207580E-6
2.700000E+2	2.774389E-6	2.214168E-6
2.800000E+2	2.791621E-6	2.219717E-6
2.900000E+2	2.806357E-6	2.224778E-6
3.000000E+2	2.819969E-6	2.229687E-6
3.100000E+2	2.835118E-6	2.234350E-6
3.200000E+2	9.999573E-6	2.238674E-6
END
